Serial Number,6027
File Created,25/ 7/2025 14:48:35
Source Application,Kinetics
User,

Wavelength (nm),307.0
Measurement Mode,Serial
Integration time (ms),2000
Delay(s),0
Duration(s),3600
Interval(s),5
Mode,Delta A
Factor,1.000
Units,

Time(s),Absorbance
0.0,0.618
5.0,0.565
10.0,0.508
15.0,0.454
20.0,0.404
25.0,0.357
30.0,0.315
35.0,0.279
40.0,0.246
45.0,0.217
50.0,0.191
55.0,0.168
60.0,0.148
65.0,0.130
70.0,0.114
75.0,0.099
80.0,0.087
85.0,0.076
90.0,0.067
95.0,0.058
100.0,0.051
105.0,0.045
110.0,0.039
115.0,0.034
120.0,0.030
125.0,0.026
130.0,0.023
135.0,0.020
140.0,0.017
145.0,0.014
150.0,0.013
155.0,0.011
160.0,0.010
165.0,0.009
170.0,0.008
175.0,0.006
180.0,0.006
185.0,0.005
190.0,0.004
195.0,0.003
200.0,0.003
205.0,0.003
210.0,0.003
215.0,0.002
220.0,0.002
225.0,0.001
230.0,0.001
235.0,0.001
240.0,0.001
245.0,0.001
250.0,0.001
255.0,0.000
260.0,0.001
265.0,0.001
270.0,0.000
275.0,0.001
280.0,0.000
285.0,0.001
290.0,0.001
295.0,0.000
300.0,0.000
305.0,-0.000
310.0,0.000
315.0,0.001
320.0,0.000
325.0,0.001
330.0,0.001
335.0,0.000
340.0,0.001
345.0,0.001
350.0,0.000
355.0,0.000
360.0,0.000
365.0,0.000
370.0,0.000
375.0,0.000
380.0,0.000
385.0,0.001
390.0,0.001
395.0,0.001
400.0,0.001
405.0,0.001
410.0,0.001
415.0,0.001
420.0,0.001
425.0,0.001
430.0,0.001
435.0,0.001
440.0,0.001
445.0,0.001
450.0,0.001
455.0,0.001
460.0,0.001
465.0,0.001
470.0,0.001
475.0,0.001
480.0,0.001
485.0,0.001
490.0,0.001
495.0,0.001
500.0,0.001
505.0,0.001
510.0,0.001
515.0,0.001
520.0,0.002
525.0,0.001
530.0,0.002
535.0,0.002
540.0,0.002
545.0,0.001
550.0,0.001
555.0,0.002
560.0,0.001
565.0,0.002
570.0,0.001
575.0,0.001
580.0,0.002
585.0,0.002
590.0,0.002
595.0,0.002
600.0,0.002
605.0,0.002
610.0,0.002
615.0,0.002
620.0,0.001
625.0,0.002
630.0,0.002
635.0,0.002
640.0,0.003
645.0,0.002
650.0,0.002
655.0,0.002
660.0,0.002
665.0,0.002
670.0,0.002
675.0,0.002
680.0,0.002
685.0,0.002
690.0,0.003
695.0,0.002
700.0,0.002
705.0,0.002
710.0,0.003
715.0,0.003
720.0,0.002
725.0,0.003
730.0,0.003
735.0,0.003
740.0,0.003
745.0,0.003
750.0,0.003
755.0,0.003
760.0,0.003
765.0,0.002
770.0,0.003
775.0,0.003
780.0,0.003
785.0,0.003
790.0,0.003
795.0,0.003
800.0,0.004
805.0,0.003
810.0,0.003
815.0,0.004
820.0,0.004
825.0,0.004
830.0,0.003
835.0,0.003
840.0,0.004
845.0,0.003
850.0,0.003
855.0,0.004
860.0,0.004
865.0,0.004
870.0,0.003
875.0,0.004
880.0,0.004
885.0,0.004
890.0,0.004
895.0,0.004
900.0,0.004
905.0,0.004
910.0,0.004
915.0,0.004
920.0,0.004
925.0,0.004
930.0,0.004
935.0,0.004
940.0,0.004
945.0,0.005
950.0,0.004
955.0,0.005
960.0,0.004
965.0,0.005
970.0,0.005
975.0,0.005
980.0,0.005
985.0,0.005
990.0,0.005
995.0,0.005
1000.0,0.005
1005.0,0.005
1010.0,0.005
1015.0,0.005
1020.0,0.005
1025.0,0.005
1030.0,0.005
1035.0,0.005
1040.0,0.005
1045.0,0.005
1050.0,0.005
1055.0,0.005
1060.0,0.005
1065.0,0.005
1070.0,0.005
1075.0,0.006
1080.0,0.006
1085.0,0.006
1090.0,0.006
1095.0,0.006
1100.0,0.006
1105.0,0.006
1110.0,0.006
1115.0,0.006
1120.0,0.006
1125.0,0.006
1130.0,0.006
1135.0,0.007
1140.0,0.006
1145.0,0.006
1150.0,0.006
1155.0,0.006
1160.0,0.006
1165.0,0.007
1170.0,0.007
1175.0,0.007
1180.0,0.007
1185.0,0.007
1190.0,0.007
1195.0,0.007
1200.0,0.007
1205.0,0.007
1210.0,0.007
1215.0,0.007
1220.0,0.006
1225.0,0.007
1230.0,0.007
1235.0,0.007
1240.0,0.007
1245.0,0.007
1250.0,0.007
1255.0,0.007
1260.0,0.008
1265.0,0.007
1270.0,0.007
1275.0,0.008
1280.0,0.008
1285.0,0.008
1290.0,0.007
1295.0,0.008
1300.0,0.008
1305.0,0.007
1310.0,0.008
1315.0,0.008
1320.0,0.008
1325.0,0.007
1330.0,0.008
1335.0,0.008
1340.0,0.008
1345.0,0.008
1350.0,0.008
1355.0,0.008
1360.0,0.008
1365.0,0.008
1370.0,0.008
1375.0,0.008
1380.0,0.008
1385.0,0.008
1390.0,0.008
1395.0,0.008
1400.0,0.008
1405.0,0.008
1410.0,0.008
1415.0,0.009
1420.0,0.009
1425.0,0.009
1430.0,0.009
1435.0,0.009
1440.0,0.008
1445.0,0.008
1450.0,0.009
1455.0,0.008
1460.0,0.009
1465.0,0.008
1470.0,0.009
1475.0,0.009
1480.0,0.009
1485.0,0.009
1490.0,0.009
1495.0,0.009
1500.0,0.009
1505.0,0.009
1510.0,0.010
1515.0,0.009
1520.0,0.009
1525.0,0.009
1530.0,0.010
1535.0,0.009
1540.0,0.009
1545.0,0.009
1550.0,0.010
1555.0,0.009
1560.0,0.010
1565.0,0.010
1570.0,0.010
1575.0,0.010
1580.0,0.010
1585.0,0.010
1590.0,0.010
1595.0,0.010
1600.0,0.010
1605.0,0.010
1610.0,0.010
1615.0,0.010
1620.0,0.011
1625.0,0.010
1630.0,0.011
1635.0,0.011
1640.0,0.010
1645.0,0.011
1650.0,0.011
1655.0,0.011
1660.0,0.010
1665.0,0.011
1670.0,0.011
1675.0,0.011
1680.0,0.011
1685.0,0.011
1690.0,0.011
1695.0,0.011
1700.0,0.011
1705.0,0.011
1710.0,0.011
1715.0,0.012
1720.0,0.011
1725.0,0.011
1730.0,0.012
1735.0,0.011
1740.0,0.011
1745.0,0.011
1750.0,0.012
1755.0,0.012
1760.0,0.012
1765.0,0.012
1770.0,0.012
1775.0,0.012
1780.0,0.012
1785.0,0.012
1790.0,0.012
1795.0,0.012
1800.0,0.012
1805.0,0.012
1810.0,0.013
1815.0,0.012
1820.0,0.012
1825.0,0.012
1830.0,0.013
1835.0,0.013
1840.0,0.012
1845.0,0.012
1850.0,0.013
1855.0,0.013
1860.0,0.013
1865.0,0.013
1870.0,0.013
1875.0,0.013
1880.0,0.012
1885.0,0.013
1890.0,0.013
1895.0,0.013
1900.0,0.013
1905.0,0.013
1910.0,0.013
1915.0,0.013
1920.0,0.014
1925.0,0.013
1930.0,0.013
1935.0,0.013
1940.0,0.013
1945.0,0.013
1950.0,0.014
1955.0,0.014
1960.0,0.014
1965.0,0.014
1970.0,0.014
1975.0,0.014
1980.0,0.014
1985.0,0.014
1990.0,0.014
1995.0,0.014
2000.0,0.014
2005.0,0.014
2010.0,0.014
2015.0,0.014
2020.0,0.014
2025.0,0.014
2030.0,0.015
2035.0,0.014
2040.0,0.014
2045.0,0.014
2050.0,0.014
2055.0,0.015
2060.0,0.014
2065.0,0.014
2070.0,0.015
2075.0,0.014
2080.0,0.015
2085.0,0.015
2090.0,0.015
2095.0,0.015
2100.0,0.015
2105.0,0.015
2110.0,0.015
2115.0,0.016
2120.0,0.015
2125.0,0.015
2130.0,0.015
2135.0,0.015
2140.0,0.015
2145.0,0.015
2150.0,0.015
2155.0,0.015
2160.0,0.015
2165.0,0.015
2170.0,0.015
2175.0,0.015
2180.0,0.016
2185.0,0.015
2190.0,0.015
2195.0,0.016
2200.0,0.015
2205.0,0.016
2210.0,0.016
2215.0,0.016
2220.0,0.016
2225.0,0.016
2230.0,0.016
2235.0,0.016
2240.0,0.016
2245.0,0.016
2250.0,0.016
2255.0,0.016
2260.0,0.016
2265.0,0.016
2270.0,0.016
2275.0,0.016
2280.0,0.016
2285.0,0.016
2290.0,0.016
2295.0,0.017
2300.0,0.016
2305.0,0.017
2310.0,0.016
2315.0,0.016
2320.0,0.016
2325.0,0.016
2330.0,0.016
2335.0,0.016
2340.0,0.017
2345.0,0.017
2350.0,0.016
2355.0,0.017
2360.0,0.017
2365.0,0.017
2370.0,0.017
2375.0,0.017
2380.0,0.017
2385.0,0.017
2390.0,0.017
2395.0,0.017
2400.0,0.017
2405.0,0.017
2410.0,0.017
2415.0,0.017
2420.0,0.016
2425.0,0.017
2430.0,0.017
2435.0,0.017
2440.0,0.018
2445.0,0.017
2450.0,0.018
2455.0,0.018
2460.0,0.018
2465.0,0.017
2470.0,0.018
2475.0,0.017
2480.0,0.018
2485.0,0.018
2490.0,0.018
2495.0,0.018
2500.0,0.018
2505.0,0.018
2510.0,0.018
2515.0,0.018
2520.0,0.019
2525.0,0.018
2530.0,0.019
2535.0,0.018
2540.0,0.018
2545.0,0.018
2550.0,0.018
2555.0,0.019
2560.0,0.019
2565.0,0.019
2570.0,0.019
2575.0,0.019
2580.0,0.019
2585.0,0.019
2590.0,0.019
2595.0,0.019
2600.0,0.019
2605.0,0.019
2610.0,0.019
2615.0,0.019
2620.0,0.019
2625.0,0.019
2630.0,0.019
2635.0,0.019
2640.0,0.019
2645.0,0.019
2650.0,0.019
2655.0,0.020
2660.0,0.019
2665.0,0.019
2670.0,0.020
2675.0,0.019
2680.0,0.020
2685.0,0.020
2690.0,0.020
2695.0,0.020
2700.0,0.020
2705.0,0.020
2710.0,0.020
2715.0,0.020
2720.0,0.020
2725.0,0.020
2730.0,0.020
2735.0,0.020
2740.0,0.020
2745.0,0.020
2750.0,0.020
2755.0,0.020
2760.0,0.021
2765.0,0.021
2770.0,0.020
2775.0,0.020
2780.0,0.020
2785.0,0.021
2790.0,0.020
2795.0,0.021
2800.0,0.021
2805.0,0.021
2810.0,0.021
2815.0,0.021
2820.0,0.021
2825.0,0.021
2830.0,0.021
2835.0,0.021
2840.0,0.021
2845.0,0.021
2850.0,0.021
2855.0,0.021
2860.0,0.021
2865.0,0.021
2870.0,0.022
2875.0,0.021
2880.0,0.021
2885.0,0.021
2890.0,0.022
2895.0,0.022
2900.0,0.021
2905.0,0.022
2910.0,0.022
2915.0,0.022
2920.0,0.022
2925.0,0.022
2930.0,0.022
2935.0,0.022
2940.0,0.022
2945.0,0.022
2950.0,0.022
2955.0,0.022
2960.0,0.023
2965.0,0.022
2970.0,0.023
2975.0,0.022
2980.0,0.023
2985.0,0.023
2990.0,0.023
2995.0,0.023
3000.0,0.022
3005.0,0.023
3010.0,0.023
3015.0,0.022
3020.0,0.022
3025.0,0.023
3030.0,0.023
3035.0,0.023
3040.0,0.023
3045.0,0.023
3050.0,0.023
3055.0,0.023
3060.0,0.023
3065.0,0.024
3070.0,0.023
3075.0,0.023
3080.0,0.023
3085.0,0.024
3090.0,0.024
3095.0,0.024
3100.0,0.024
3105.0,0.023
3110.0,0.023
3115.0,0.024
3120.0,0.023
3125.0,0.024
3130.0,0.024
3135.0,0.024
3140.0,0.024
3145.0,0.024
3150.0,0.024
3155.0,0.024
3160.0,0.024
3165.0,0.024
3170.0,0.025
3175.0,0.025
3180.0,0.024
3185.0,0.025
3190.0,0.024
3195.0,0.025
3200.0,0.025
3205.0,0.025
3210.0,0.025
3215.0,0.025
3220.0,0.025
3225.0,0.025
3230.0,0.024
3235.0,0.025
3240.0,0.025
3245.0,0.025
3250.0,0.025
3255.0,0.025
3260.0,0.026
3265.0,0.025
3270.0,0.025
3275.0,0.025
3280.0,0.026
3285.0,0.025
3290.0,0.026
3295.0,0.025
3300.0,0.026
3305.0,0.025
3310.0,0.026
3315.0,0.025
3320.0,0.026
3325.0,0.026
3330.0,0.026
3335.0,0.026
3340.0,0.026
3345.0,0.026
3350.0,0.025
3355.0,0.026
3360.0,0.026
3365.0,0.026
3370.0,0.026
3375.0,0.027
3380.0,0.027
3385.0,0.027
3390.0,0.027
3395.0,0.026
3400.0,0.026
3405.0,0.026
3410.0,0.027
3415.0,0.027
3420.0,0.027
3425.0,0.026
3430.0,0.026
3435.0,0.026
3440.0,0.026
3445.0,0.027
3450.0,0.027
3455.0,0.027
3460.0,0.027
3465.0,0.027
3470.0,0.027
3475.0,0.027
3480.0,0.027
3485.0,0.027
3490.0,0.027
3495.0,0.027
3500.0,0.027
3505.0,0.027
3510.0,0.027
3515.0,0.027
3520.0,0.028
3525.0,0.027
3530.0,0.027
3535.0,0.027
3540.0,0.028
3545.0,0.028
3550.0,0.028
3555.0,0.028
3560.0,0.028
3565.0,0.028
3570.0,0.028
3575.0,0.028
3580.0,0.028
3585.0,0.028
3590.0,0.028
3595.0,0.028
3600.0,0.028
