Serial Number,6027
File Created,23/ 7/2025 11:6:14
Source Application,Kinetics
User,

Wavelength (nm),307.0
Measurement Mode,Serial
Integration time (ms),2000
Delay(s),0
Duration(s),3600
Interval(s),5
Mode,Delta A
Factor,1.000
Units,

Time(s),Absorbance
0.0,0.777
5.0,0.662
10.0,0.547
15.0,0.451
20.0,0.371
25.0,0.304
30.0,0.248
35.0,0.208
40.0,0.167
45.0,0.137
50.0,0.112
55.0,0.092
60.0,0.075
65.0,0.060
70.0,0.048
75.0,0.040
80.0,0.032
85.0,0.027
90.0,0.022
95.0,0.017
100.0,0.013
105.0,0.010
110.0,0.008
115.0,0.004
120.0,0.003
125.0,0.002
130.0,0.001
135.0,0.000
140.0,0.000
145.0,-0.001
150.0,-0.003
155.0,-0.002
160.0,-0.003
165.0,-0.004
170.0,-0.004
175.0,-0.005
180.0,-0.006
185.0,-0.005
190.0,-0.006
195.0,-0.006
200.0,-0.007
205.0,-0.008
210.0,-0.006
215.0,-0.005
220.0,-0.006
225.0,-0.007
230.0,-0.009
235.0,-0.008
240.0,-0.008
245.0,-0.007
250.0,-0.007
255.0,-0.007
260.0,-0.009
265.0,-0.009
270.0,-0.008
275.0,-0.008
280.0,-0.008
285.0,-0.009
290.0,-0.009
295.0,-0.009
300.0,-0.009
305.0,-0.009
310.0,-0.008
315.0,-0.008
320.0,-0.008
325.0,-0.009
330.0,-0.009
335.0,-0.008
340.0,-0.008
345.0,-0.009
350.0,-0.008
355.0,-0.009
360.0,-0.008
365.0,-0.009
370.0,-0.008
375.0,-0.008
380.0,-0.009
385.0,-0.009
390.0,-0.008
395.0,-0.009
400.0,-0.008
405.0,-0.008
410.0,-0.009
415.0,-0.009
420.0,-0.009
425.0,-0.008
430.0,-0.008
435.0,-0.009
440.0,-0.008
445.0,-0.007
450.0,-0.008
455.0,-0.008
460.0,-0.008
465.0,-0.008
470.0,-0.009
475.0,-0.008
480.0,-0.008
485.0,-0.008
490.0,-0.008
495.0,-0.008
500.0,-0.009
505.0,-0.009
510.0,-0.007
515.0,-0.008
520.0,-0.008
525.0,-0.009
530.0,-0.008
535.0,-0.009
540.0,-0.009
545.0,-0.008
550.0,-0.007
555.0,-0.007
560.0,-0.009
565.0,-0.009
570.0,-0.008
575.0,-0.008
580.0,-0.009
585.0,-0.007
590.0,-0.007
595.0,-0.008
600.0,-0.006
605.0,-0.007
610.0,-0.007
615.0,-0.008
620.0,-0.008
625.0,-0.008
630.0,-0.007
635.0,-0.009
640.0,-0.008
645.0,-0.008
650.0,-0.008
655.0,-0.007
660.0,-0.008
665.0,-0.008
670.0,-0.007
675.0,-0.007
680.0,-0.007
685.0,-0.008
690.0,-0.008
695.0,-0.007
700.0,-0.007
705.0,-0.007
710.0,-0.008
715.0,-0.008
720.0,-0.007
725.0,-0.008
730.0,-0.007
735.0,-0.007
740.0,-0.007
745.0,-0.007
750.0,-0.006
755.0,-0.008
760.0,-0.008
765.0,-0.007
770.0,-0.007
775.0,-0.007
780.0,-0.008
785.0,-0.007
790.0,-0.008
795.0,-0.007
800.0,-0.007
805.0,-0.006
810.0,-0.007
815.0,-0.007
820.0,-0.007
825.0,-0.008
830.0,-0.007
835.0,-0.006
840.0,-0.007
845.0,-0.007
850.0,-0.006
855.0,-0.007
860.0,-0.007
865.0,-0.007
870.0,-0.007
875.0,-0.006
880.0,-0.006
885.0,-0.007
890.0,-0.008
895.0,-0.006
900.0,-0.007
905.0,-0.006
910.0,-0.007
915.0,-0.007
920.0,-0.007
925.0,-0.006
930.0,-0.006
935.0,-0.006
940.0,-0.007
945.0,-0.007
950.0,-0.008
955.0,-0.006
960.0,-0.006
965.0,-0.007
970.0,-0.007
975.0,-0.006
980.0,-0.006
985.0,-0.006
990.0,-0.006
995.0,-0.006
1000.0,-0.007
1005.0,-0.007
1010.0,-0.007
1015.0,-0.007
1020.0,-0.006
1025.0,-0.006
1030.0,-0.006
1035.0,-0.006
1040.0,-0.007
1045.0,-0.006
1050.0,-0.007
1055.0,-0.006
1060.0,-0.006
1065.0,-0.005
1070.0,-0.005
1075.0,-0.006
1080.0,-0.006
1085.0,-0.005
1090.0,-0.006
1095.0,-0.006
1100.0,-0.005
1105.0,-0.005
1110.0,-0.006
1115.0,-0.006
1120.0,-0.006
1125.0,-0.006
1130.0,-0.005
1135.0,-0.005
1140.0,-0.006
1145.0,-0.005
1150.0,-0.006
1155.0,-0.005
1160.0,-0.006
1165.0,-0.005
1170.0,-0.005
1175.0,-0.006
1180.0,-0.005
1185.0,-0.004
1190.0,-0.005
1195.0,-0.005
1200.0,-0.005
1205.0,-0.005
1210.0,-0.005
1215.0,-0.006
1220.0,-0.005
1225.0,-0.005
1230.0,-0.005
1235.0,-0.005
1240.0,-0.005
1245.0,-0.004
1250.0,-0.004
1255.0,-0.006
1260.0,-0.005
1265.0,-0.005
1270.0,-0.004
1275.0,-0.004
1280.0,-0.004
1285.0,-0.004
1290.0,-0.005
1295.0,-0.004
1300.0,-0.005
1305.0,-0.004
1310.0,-0.004
1315.0,-0.004
1320.0,-0.004
1325.0,-0.005
1330.0,-0.004
1335.0,-0.004
1340.0,-0.004
1345.0,-0.004
1350.0,-0.004
1355.0,-0.005
1360.0,-0.004
1365.0,-0.004
1370.0,-0.004
1375.0,-0.004
1380.0,-0.004
1385.0,-0.004
1390.0,-0.004
1395.0,-0.003
1400.0,-0.004
1405.0,-0.004
1410.0,-0.005
1415.0,-0.004
1420.0,-0.004
1425.0,-0.004
1430.0,-0.003
1435.0,-0.004
1440.0,-0.004
1445.0,-0.003
1450.0,-0.004
1455.0,-0.003
1460.0,-0.003
1465.0,-0.003
1470.0,-0.003
1475.0,-0.003
1480.0,-0.003
1485.0,-0.003
1490.0,-0.004
1495.0,-0.003
1500.0,-0.003
1505.0,-0.003
1510.0,-0.004
1515.0,-0.004
1520.0,-0.004
1525.0,-0.003
1530.0,-0.004
1535.0,-0.003
1540.0,-0.003
1545.0,-0.003
1550.0,-0.003
1555.0,-0.003
1560.0,-0.003
1565.0,-0.004
1570.0,-0.003
1575.0,-0.003
1580.0,-0.003
1585.0,-0.002
1590.0,-0.002
1595.0,-0.003
1600.0,-0.003
1605.0,-0.003
1610.0,-0.003
1615.0,-0.003
1620.0,-0.002
1625.0,-0.002
1630.0,-0.003
1635.0,-0.003
1640.0,-0.002
1645.0,-0.002
1650.0,-0.003
1655.0,-0.002
1660.0,-0.001
1665.0,-0.003
1670.0,-0.002
1675.0,-0.002
1680.0,-0.002
1685.0,-0.002
1690.0,-0.002
1695.0,-0.002
1700.0,-0.002
1705.0,-0.001
1710.0,-0.001
1715.0,-0.002
1720.0,-0.002
1725.0,-0.001
1730.0,-0.001
1735.0,-0.001
1740.0,-0.001
1745.0,-0.001
1750.0,-0.002
1755.0,-0.001
1760.0,-0.002
1765.0,-0.002
1770.0,-0.000
1775.0,-0.001
1780.0,0.001
1785.0,-0.000
1790.0,-0.001
1795.0,-0.000
1800.0,-0.001
1805.0,-0.001
1810.0,0.000
1815.0,-0.002
1820.0,-0.001
1825.0,-0.001
1830.0,-0.000
1835.0,-0.001
1840.0,0.000
1845.0,0.000
1850.0,-0.001
1855.0,-0.001
1860.0,-0.001
1865.0,-0.001
1870.0,-0.001
1875.0,-0.001
1880.0,-0.001
1885.0,-0.001
1890.0,0.000
1895.0,-0.001
1900.0,-0.000
1905.0,-0.000
1910.0,-0.000
1915.0,0.000
1920.0,0.000
1925.0,-0.000
1930.0,-0.000
1935.0,-0.000
1940.0,0.000
1945.0,-0.000
1950.0,0.001
1955.0,0.000
1960.0,-0.000
1965.0,0.000
1970.0,0.001
1975.0,0.001
1980.0,0.000
1985.0,0.001
1990.0,0.000
1995.0,0.001
2000.0,0.001
2005.0,0.000
2010.0,0.001
2015.0,0.001
2020.0,0.001
2025.0,0.001
2030.0,0.001
2035.0,0.001
2040.0,0.001
2045.0,0.001
2050.0,0.002
2055.0,0.001
2060.0,0.001
2065.0,0.001
2070.0,0.002
2075.0,0.001
2080.0,0.001
2085.0,0.001
2090.0,0.002
2095.0,0.002
2100.0,0.002
2105.0,0.002
2110.0,0.002
2115.0,0.002
2120.0,0.002
2125.0,0.001
2130.0,0.002
2135.0,0.002
2140.0,0.002
2145.0,0.002
2150.0,0.002
2155.0,0.002
2160.0,0.003
2165.0,0.002
2170.0,0.003
2175.0,0.002
2180.0,0.003
2185.0,0.003
2190.0,0.003
2195.0,0.003
2200.0,0.003
2205.0,0.003
2210.0,0.003
2215.0,0.003
2220.0,0.002
2225.0,0.004
2230.0,0.003
2235.0,0.003
2240.0,0.002
2245.0,0.003
2250.0,0.004
2255.0,0.004
2260.0,0.004
2265.0,0.004
2270.0,0.004
2275.0,0.004
2280.0,0.003
2285.0,0.004
2290.0,0.005
2295.0,0.004
2300.0,0.005
2305.0,0.003
2310.0,0.004
2315.0,0.005
2320.0,0.004
2325.0,0.005
2330.0,0.004
2335.0,0.004
2340.0,0.005
2345.0,0.005
2350.0,0.005
2355.0,0.004
2360.0,0.004
2365.0,0.005
2370.0,0.005
2375.0,0.005
2380.0,0.005
2385.0,0.005
2390.0,0.006
2395.0,0.005
2400.0,0.006
2405.0,0.006
2410.0,0.005
2415.0,0.005
2420.0,0.006
2425.0,0.006
2430.0,0.006
2435.0,0.006
2440.0,0.006
2445.0,0.006
2450.0,0.005
2455.0,0.007
2460.0,0.006
2465.0,0.006
2470.0,0.007
2475.0,0.006
2480.0,0.007
2485.0,0.007
2490.0,0.007
2495.0,0.007
2500.0,0.007
2505.0,0.007
2510.0,0.007
2515.0,0.006
2520.0,0.008
2525.0,0.008
2530.0,0.008
2535.0,0.008
2540.0,0.007
2545.0,0.008
2550.0,0.007
2555.0,0.008
2560.0,0.007
2565.0,0.008
2570.0,0.008
2575.0,0.007
2580.0,0.007
2585.0,0.008
2590.0,0.008
2595.0,0.009
2600.0,0.008
2605.0,0.009
2610.0,0.008
2615.0,0.009
2620.0,0.008
2625.0,0.008
2630.0,0.009
2635.0,0.009
2640.0,0.009
2645.0,0.009
2650.0,0.009
2655.0,0.009
2660.0,0.009
2665.0,0.009
2670.0,0.010
2675.0,0.010
2680.0,0.009
2685.0,0.009
2690.0,0.010
2695.0,0.010
2700.0,0.010
2705.0,0.009
2710.0,0.010
2715.0,0.010
2720.0,0.010
2725.0,0.010
2730.0,0.010
2735.0,0.010
2740.0,0.011
2745.0,0.010
2750.0,0.010
2755.0,0.011
2760.0,0.010
2765.0,0.011
2770.0,0.011
2775.0,0.011
2780.0,0.010
2785.0,0.011
2790.0,0.011
2795.0,0.011
2800.0,0.012
2805.0,0.011
2810.0,0.012
2815.0,0.011
2820.0,0.011
2825.0,0.011
2830.0,0.011
2835.0,0.012
2840.0,0.012
2845.0,0.011
2850.0,0.013
2855.0,0.012
2860.0,0.012
2865.0,0.013
2870.0,0.012
2875.0,0.012
2880.0,0.012
2885.0,0.012
2890.0,0.012
2895.0,0.012
2900.0,0.013
2905.0,0.013
2910.0,0.014
2915.0,0.012
2920.0,0.013
2925.0,0.013
2930.0,0.013
2935.0,0.013
2940.0,0.013
2945.0,0.013
2950.0,0.014
2955.0,0.014
2960.0,0.013
2965.0,0.014
2970.0,0.014
2975.0,0.013
2980.0,0.013
2985.0,0.014
2990.0,0.014
2995.0,0.014
3000.0,0.014
3005.0,0.014
3010.0,0.014
3015.0,0.013
3020.0,0.015
3025.0,0.014
3030.0,0.015
3035.0,0.014
3040.0,0.014
3045.0,0.015
3050.0,0.015
3055.0,0.015
3060.0,0.015
3065.0,0.015
3070.0,0.015
3075.0,0.016
3080.0,0.014
3085.0,0.015
3090.0,0.016
3095.0,0.015
3100.0,0.015
3105.0,0.016
3110.0,0.015
3115.0,0.016
3120.0,0.016
3125.0,0.016
3130.0,0.016
3135.0,0.016
3140.0,0.016
3145.0,0.016
3150.0,0.016
3155.0,0.016
3160.0,0.017
3165.0,0.017
3170.0,0.017
3175.0,0.016
3180.0,0.017
3185.0,0.017
3190.0,0.017
3195.0,0.017
3200.0,0.017
3205.0,0.018
3210.0,0.017
3215.0,0.018
3220.0,0.017
3225.0,0.017
3230.0,0.017
3235.0,0.018
3240.0,0.018
3245.0,0.018
3250.0,0.018
3255.0,0.018
3260.0,0.018
3265.0,0.018
3270.0,0.018
3275.0,0.018
3280.0,0.018
3285.0,0.018
3290.0,0.018
3295.0,0.019
3300.0,0.019
3305.0,0.018
3310.0,0.018
3315.0,0.019
3320.0,0.019
3325.0,0.019
3330.0,0.019
3335.0,0.019
3340.0,0.020
3345.0,0.020
3350.0,0.019
3355.0,0.019
3360.0,0.019
3365.0,0.020
3370.0,0.019
3375.0,0.020
3380.0,0.020
3385.0,0.020
3390.0,0.020
3395.0,0.020
3400.0,0.021
3405.0,0.020
3410.0,0.021
3415.0,0.020
3420.0,0.020
3425.0,0.021
3430.0,0.020
3435.0,0.021
3440.0,0.021
3445.0,0.021
3450.0,0.021
3455.0,0.021
3460.0,0.022
3465.0,0.020
3470.0,0.021
3475.0,0.021
3480.0,0.020
3485.0,0.022
3490.0,0.022
3495.0,0.021
3500.0,0.021
3505.0,0.021
3510.0,0.022
3515.0,0.021
3520.0,0.022
3525.0,0.022
3530.0,0.021
3535.0,0.022
3540.0,0.021
3545.0,0.022
3550.0,0.022
3555.0,0.022
3560.0,0.022
3565.0,0.022
3570.0,0.022
3575.0,0.023
3580.0,0.022
3585.0,0.022
3590.0,0.023
3595.0,0.023
3600.0,0.024
