Serial Number,6027
File Created,25/ 7/2025 11:43:28
Source Application,Kinetics
User,

Wavelength (nm),307.0
Measurement Mode,Serial
Integration time (ms),2000
Delay(s),0
Duration(s),3600
Interval(s),5
Mode,Delta A
Factor,1.000
Units,

Time(s),Absorbance
0.0,0.698
5.0,0.689
10.0,0.677
15.0,0.670
20.0,0.662
25.0,0.654
30.0,0.646
35.0,0.639
40.0,0.632
45.0,0.626
50.0,0.617
55.0,0.611
60.0,0.604
65.0,0.597
70.0,0.590
75.0,0.584
80.0,0.576
85.0,0.569
90.0,0.563
95.0,0.557
100.0,0.551
105.0,0.545
110.0,0.539
115.0,0.533
120.0,0.527
125.0,0.521
130.0,0.516
135.0,0.510
140.0,0.504
145.0,0.499
150.0,0.494
155.0,0.490
160.0,0.484
165.0,0.479
170.0,0.474
175.0,0.469
180.0,0.465
185.0,0.460
190.0,0.455
195.0,0.451
200.0,0.447
205.0,0.442
210.0,0.438
215.0,0.433
220.0,0.430
225.0,0.425
230.0,0.421
235.0,0.417
240.0,0.412
245.0,0.409
250.0,0.405
255.0,0.401
260.0,0.398
265.0,0.394
270.0,0.390
275.0,0.386
280.0,0.382
285.0,0.379
290.0,0.375
295.0,0.372
300.0,0.367
305.0,0.364
310.0,0.361
315.0,0.357
320.0,0.354
325.0,0.351
330.0,0.347
335.0,0.344
340.0,0.340
345.0,0.337
350.0,0.333
355.0,0.330
360.0,0.328
365.0,0.324
370.0,0.321
375.0,0.318
380.0,0.315
385.0,0.312
390.0,0.309
395.0,0.306
400.0,0.303
405.0,0.300
410.0,0.297
415.0,0.294
420.0,0.290
425.0,0.288
430.0,0.285
435.0,0.283
440.0,0.280
445.0,0.277
450.0,0.275
455.0,0.272
460.0,0.269
465.0,0.267
470.0,0.264
475.0,0.262
480.0,0.259
485.0,0.256
490.0,0.254
495.0,0.252
500.0,0.249
505.0,0.247
510.0,0.245
515.0,0.242
520.0,0.240
525.0,0.237
530.0,0.235
535.0,0.233
540.0,0.230
545.0,0.228
550.0,0.227
555.0,0.224
560.0,0.222
565.0,0.220
570.0,0.217
575.0,0.216
580.0,0.213
585.0,0.212
590.0,0.210
595.0,0.208
600.0,0.205
605.0,0.204
610.0,0.201
615.0,0.199
620.0,0.197
625.0,0.195
630.0,0.194
635.0,0.192
640.0,0.190
645.0,0.188
650.0,0.186
655.0,0.185
660.0,0.183
665.0,0.181
670.0,0.179
675.0,0.177
680.0,0.175
685.0,0.174
690.0,0.172
695.0,0.171
700.0,0.169
705.0,0.168
710.0,0.166
715.0,0.164
720.0,0.162
725.0,0.161
730.0,0.159
735.0,0.158
740.0,0.156
745.0,0.155
750.0,0.153
755.0,0.152
760.0,0.150
765.0,0.149
770.0,0.148
775.0,0.146
780.0,0.145
785.0,0.143
790.0,0.142
795.0,0.140
800.0,0.138
805.0,0.137
810.0,0.136
815.0,0.135
820.0,0.134
825.0,0.133
830.0,0.131
835.0,0.130
840.0,0.128
845.0,0.127
850.0,0.126
855.0,0.125
860.0,0.123
865.0,0.123
870.0,0.121
875.0,0.120
880.0,0.119
885.0,0.118
890.0,0.117
895.0,0.116
900.0,0.114
905.0,0.114
910.0,0.112
915.0,0.111
920.0,0.110
925.0,0.109
930.0,0.108
935.0,0.107
940.0,0.106
945.0,0.105
950.0,0.104
955.0,0.103
960.0,0.102
965.0,0.101
970.0,0.100
975.0,0.099
980.0,0.098
985.0,0.097
990.0,0.096
995.0,0.095
1000.0,0.094
1005.0,0.093
1010.0,0.092
1015.0,0.091
1020.0,0.091
1025.0,0.090
1030.0,0.089
1035.0,0.088
1040.0,0.087
1045.0,0.087
1050.0,0.086
1055.0,0.085
1060.0,0.084
1065.0,0.083
1070.0,0.083
1075.0,0.082
1080.0,0.081
1085.0,0.080
1090.0,0.079
1095.0,0.079
1100.0,0.078
1105.0,0.077
1110.0,0.076
1115.0,0.076
1120.0,0.075
1125.0,0.074
1130.0,0.074
1135.0,0.073
1140.0,0.071
1145.0,0.071
1150.0,0.070
1155.0,0.070
1160.0,0.069
1165.0,0.068
1170.0,0.068
1175.0,0.067
1180.0,0.067
1185.0,0.066
1190.0,0.065
1195.0,0.065
1200.0,0.064
1205.0,0.064
1210.0,0.063
1215.0,0.062
1220.0,0.062
1225.0,0.061
1230.0,0.061
1235.0,0.060
1240.0,0.059
1245.0,0.059
1250.0,0.058
1255.0,0.058
1260.0,0.057
1265.0,0.057
1270.0,0.056
1275.0,0.055
1280.0,0.055
1285.0,0.054
1290.0,0.054
1295.0,0.053
1300.0,0.053
1305.0,0.052
1310.0,0.052
1315.0,0.051
1320.0,0.051
1325.0,0.051
1330.0,0.051
1335.0,0.050
1340.0,0.049
1345.0,0.049
1350.0,0.049
1355.0,0.048
1360.0,0.048
1365.0,0.047
1370.0,0.047
1375.0,0.047
1380.0,0.047
1385.0,0.045
1390.0,0.045
1395.0,0.044
1400.0,0.044
1405.0,0.044
1410.0,0.044
1415.0,0.043
1420.0,0.042
1425.0,0.042
1430.0,0.042
1435.0,0.042
1440.0,0.042
1445.0,0.042
1450.0,0.041
1455.0,0.040
1460.0,0.040
1465.0,0.040
1470.0,0.039
1475.0,0.039
1480.0,0.039
1485.0,0.039
1490.0,0.038
1495.0,0.037
1500.0,0.038
1505.0,0.037
1510.0,0.037
1515.0,0.037
1520.0,0.036
1525.0,0.036
1530.0,0.036
1535.0,0.035
1540.0,0.035
1545.0,0.034
1550.0,0.034
1555.0,0.034
1560.0,0.034
1565.0,0.033
1570.0,0.034
1575.0,0.033
1580.0,0.032
1585.0,0.033
1590.0,0.032
1595.0,0.032
1600.0,0.032
1605.0,0.031
1610.0,0.031
1615.0,0.031
1620.0,0.031
1625.0,0.030
1630.0,0.030
1635.0,0.030
1640.0,0.030
1645.0,0.029
1650.0,0.029
1655.0,0.029
1660.0,0.029
1665.0,0.029
1670.0,0.029
1675.0,0.028
1680.0,0.028
1685.0,0.027
1690.0,0.027
1695.0,0.027
1700.0,0.027
1705.0,0.027
1710.0,0.027
1715.0,0.026
1720.0,0.026
1725.0,0.026
1730.0,0.025
1735.0,0.026
1740.0,0.026
1745.0,0.026
1750.0,0.025
1755.0,0.025
1760.0,0.025
1765.0,0.024
1770.0,0.025
1775.0,0.024
1780.0,0.024
1785.0,0.024
1790.0,0.023
1795.0,0.024
1800.0,0.023
1805.0,0.023
1810.0,0.023
1815.0,0.023
1820.0,0.023
1825.0,0.022
1830.0,0.023
1835.0,0.022
1840.0,0.023
1845.0,0.022
1850.0,0.022
1855.0,0.022
1860.0,0.022
1865.0,0.022
1870.0,0.022
1875.0,0.021
1880.0,0.021
1885.0,0.021
1890.0,0.021
1895.0,0.021
1900.0,0.021
1905.0,0.021
1910.0,0.021
1915.0,0.020
1920.0,0.021
1925.0,0.020
1930.0,0.020
1935.0,0.020
1940.0,0.020
1945.0,0.020
1950.0,0.020
1955.0,0.020
1960.0,0.020
1965.0,0.020
1970.0,0.019
1975.0,0.020
1980.0,0.019
1985.0,0.019
1990.0,0.019
1995.0,0.019
2000.0,0.019
2005.0,0.019
2010.0,0.019
2015.0,0.018
2020.0,0.018
2025.0,0.018
2030.0,0.018
2035.0,0.018
2040.0,0.018
2045.0,0.018
2050.0,0.018
2055.0,0.018
2060.0,0.018
2065.0,0.018
2070.0,0.018
2075.0,0.018
2080.0,0.018
2085.0,0.018
2090.0,0.017
2095.0,0.018
2100.0,0.017
2105.0,0.017
2110.0,0.017
2115.0,0.017
2120.0,0.017
2125.0,0.017
2130.0,0.017
2135.0,0.017
2140.0,0.017
2145.0,0.017
2150.0,0.017
2155.0,0.016
2160.0,0.016
2165.0,0.016
2170.0,0.016
2175.0,0.016
2180.0,0.016
2185.0,0.016
2190.0,0.016
2195.0,0.016
2200.0,0.016
2205.0,0.016
2210.0,0.016
2215.0,0.016
2220.0,0.016
2225.0,0.015
2230.0,0.016
2235.0,0.015
2240.0,0.015
2245.0,0.015
2250.0,0.016
2255.0,0.015
2260.0,0.015
2265.0,0.015
2270.0,0.015
2275.0,0.015
2280.0,0.015
2285.0,0.015
2290.0,0.015
2295.0,0.015
2300.0,0.015
2305.0,0.015
2310.0,0.014
2315.0,0.015
2320.0,0.014
2325.0,0.014
2330.0,0.015
2335.0,0.015
2340.0,0.014
2345.0,0.015
2350.0,0.014
2355.0,0.014
2360.0,0.015
2365.0,0.015
2370.0,0.014
2375.0,0.014
2380.0,0.014
2385.0,0.014
2390.0,0.014
2395.0,0.014
2400.0,0.014
2405.0,0.014
2410.0,0.014
2415.0,0.014
2420.0,0.014
2425.0,0.014
2430.0,0.014
2435.0,0.014
2440.0,0.014
2445.0,0.014
2450.0,0.014
2455.0,0.014
2460.0,0.014
2465.0,0.013
2470.0,0.014
2475.0,0.013
2480.0,0.014
2485.0,0.014
2490.0,0.013
2495.0,0.014
2500.0,0.014
2505.0,0.014
2510.0,0.014
2515.0,0.013
2520.0,0.013
2525.0,0.013
2530.0,0.013
2535.0,0.014
2540.0,0.013
2545.0,0.013
2550.0,0.013
2555.0,0.014
2560.0,0.013
2565.0,0.013
2570.0,0.013
2575.0,0.013
2580.0,0.013
2585.0,0.013
2590.0,0.014
2595.0,0.013
2600.0,0.013
2605.0,0.013
2610.0,0.013
2615.0,0.013
2620.0,0.013
2625.0,0.013
2630.0,0.013
2635.0,0.013
2640.0,0.013
2645.0,0.013
2650.0,0.013
2655.0,0.013
2660.0,0.012
2665.0,0.013
2670.0,0.013
2675.0,0.013
2680.0,0.013
2685.0,0.013
2690.0,0.013
2695.0,0.013
2700.0,0.013
2705.0,0.013
2710.0,0.013
2715.0,0.013
2720.0,0.013
2725.0,0.013
2730.0,0.013
2735.0,0.013
2740.0,0.013
2745.0,0.013
2750.0,0.013
2755.0,0.013
2760.0,0.013
2765.0,0.013
2770.0,0.013
2775.0,0.013
2780.0,0.013
2785.0,0.013
2790.0,0.013
2795.0,0.012
2800.0,0.013
2805.0,0.013
2810.0,0.013
2815.0,0.013
2820.0,0.013
2825.0,0.013
2830.0,0.013
2835.0,0.013
2840.0,0.013
2845.0,0.013
2850.0,0.013
2855.0,0.013
2860.0,0.013
2865.0,0.013
2870.0,0.013
2875.0,0.013
2880.0,0.013
2885.0,0.013
2890.0,0.013
2895.0,0.013
2900.0,0.013
2905.0,0.013
2910.0,0.013
2915.0,0.013
2920.0,0.012
2925.0,0.012
2930.0,0.013
2935.0,0.013
2940.0,0.013
2945.0,0.012
2950.0,0.013
2955.0,0.013
2960.0,0.013
2965.0,0.013
2970.0,0.013
2975.0,0.013
2980.0,0.013
2985.0,0.013
2990.0,0.013
2995.0,0.013
3000.0,0.012
3005.0,0.012
3010.0,0.013
3015.0,0.012
3020.0,0.012
3025.0,0.013
3030.0,0.013
3035.0,0.012
3040.0,0.013
3045.0,0.013
3050.0,0.013
3055.0,0.012
3060.0,0.013
3065.0,0.013
3070.0,0.013
3075.0,0.012
3080.0,0.013
3085.0,0.013
3090.0,0.013
3095.0,0.013
3100.0,0.012
3105.0,0.013
3110.0,0.012
3115.0,0.012
3120.0,0.013
3125.0,0.013
3130.0,0.013
3135.0,0.012
3140.0,0.012
3145.0,0.013
3150.0,0.012
3155.0,0.012
3160.0,0.013
3165.0,0.013
3170.0,0.013
3175.0,0.013
3180.0,0.013
3185.0,0.013
3190.0,0.013
3195.0,0.013
3200.0,0.013
3205.0,0.012
3210.0,0.013
3215.0,0.013
3220.0,0.013
3225.0,0.013
3230.0,0.013
3235.0,0.013
3240.0,0.013
3245.0,0.013
3250.0,0.013
3255.0,0.013
3260.0,0.013
3265.0,0.013
3270.0,0.012
3275.0,0.013
3280.0,0.013
3285.0,0.012
3290.0,0.012
3295.0,0.013
3300.0,0.013
3305.0,0.013
3310.0,0.013
3315.0,0.013
3320.0,0.013
3325.0,0.013
3330.0,0.012
3335.0,0.013
3340.0,0.013
3345.0,0.013
3350.0,0.012
3355.0,0.013
3360.0,0.013
3365.0,0.013
3370.0,0.013
3375.0,0.013
3380.0,0.013
3385.0,0.013
3390.0,0.013
3395.0,0.013
3400.0,0.013
3405.0,0.013
3410.0,0.013
3415.0,0.013
3420.0,0.012
3425.0,0.013
3430.0,0.013
3435.0,0.013
3440.0,0.013
3445.0,0.013
3450.0,0.013
3455.0,0.013
3460.0,0.013
3465.0,0.013
3470.0,0.013
3475.0,0.013
3480.0,0.013
3485.0,0.013
3490.0,0.013
3495.0,0.013
3500.0,0.013
3505.0,0.013
3510.0,0.013
3515.0,0.013
3520.0,0.013
3525.0,0.013
3530.0,0.013
3535.0,0.013
3540.0,0.013
3545.0,0.013
3550.0,0.013
3555.0,0.013
3560.0,0.013
3565.0,0.013
3570.0,0.013
3575.0,0.013
3580.0,0.013
3585.0,0.013
3590.0,0.013
3595.0,0.013
3600.0,0.013
